Typical Measured Spectrum of Semrock FF695-Di01 Optical Filter	
For wavelengths between 320 and 1120 nm, values near or below 3e-7 (Optical Density 6.5) are measurement noise limited.
For wavelengths < 320 nm and > 1120 nm, values near or below 3e-6 (Optical Density 5.5) are measurement noise limited. 
Data format:  Wavelength (nm) <tab> Transmission (0 to 1)
440.0	0.00573
440.2	0.00558
440.4	0.00537
440.6	0.00506
440.8	0.0045
441.0	0.00408
441.2	0.00354
441.4	0.00307
441.6	0.00258
441.8	0.00216
442.0	0.00184
442.2	0.00167
442.4	0.0014
442.6	0.00128
442.8	0.00115
443.0	0.00108
443.2	0.00114
443.4	0.00108
443.6	0.00111
443.8	0.00113
444.0	0.00118
444.2	0.00131
444.4	0.00134
444.6	0.00144
444.8	0.00157
445.0	0.00162
445.2	0.00179
445.4	0.00192
445.6	0.00215
445.8	0.00232
446.0	0.00266
446.2	0.00295
446.4	0.00332
446.6	0.00373
446.8	0.00419
447.0	0.00463
447.2	0.00504
447.4	0.00546
447.6	0.0058
447.8	0.00596
448.0	0.00612
448.2	0.00619
448.4	0.00606
448.6	0.00601
448.8	0.00586
449.0	0.00563
449.2	0.00542
449.4	0.00513
449.6	0.00487
449.8	0.00459
450.0	0.00433
450.2	0.00398
450.4	0.00362
450.6	0.0033
450.8	0.00293
451.0	0.00258
451.2	0.00234
451.4	0.00204
451.6	0.00183
451.8	0.00159
452.0	0.00145
452.2	0.00127
452.4	0.00115
452.6	0.00109
452.8	0.00108
453.0	0.00101
453.2	0.00111
453.4	0.00109
453.6	0.00119
453.8	0.00127
454.0	0.0013
454.2	0.0013
454.4	0.00137
454.6	0.00143
454.8	0.00143
455.0	0.0014
455.2	0.00142
455.4	0.00136
455.6	0.00137
455.8	0.00139
456.0	0.0015
456.2	0.0017
456.4	0.00191
456.6	0.0022
456.8	0.00267
457.0	0.00313
457.2	0.00368
457.4	0.00426
457.6	0.00493
457.8	0.00555
458.0	0.0061
458.2	0.00655
458.4	0.00697
458.6	0.0072
458.8	0.0074
459.0	0.00739
459.2	0.00743
459.4	0.00736
459.6	0.00726
459.8	0.00719
460.0	0.00706
460.2	0.00702
460.4	0.00689
460.6	0.00665
460.8	0.00643
461.0	0.00619
461.2	0.00579
461.4	0.00546
461.6	0.00504
461.8	0.00464
462.0	0.00412
462.2	0.0037
462.4	0.00326
462.6	0.0029
462.8	0.00252
463.0	0.00227
463.2	0.00202
463.4	0.00182
463.6	0.00169
463.8	0.00156
464.0	0.00144
464.2	0.00141
464.4	0.00133
464.6	0.00132
464.8	0.00131
465.0	0.00131
465.2	0.00132
465.4	0.00138
465.6	0.00148
465.8	0.00167
466.0	0.00187
466.2	0.00215
466.4	0.00255
466.6	0.00297
466.8	0.00353
467.0	0.00404
467.2	0.00455
467.4	0.00495
467.6	0.00529
467.8	0.00556
468.0	0.00559
468.2	0.00551
468.4	0.00529
468.6	0.00488
468.8	0.0045
469.0	0.00395
469.2	0.00351
469.4	0.00306
469.6	0.00262
469.8	0.0023
470.0	0.00207
470.2	0.0019
470.4	0.00173
470.6	0.00173
470.8	0.00169
471.0	0.00175
471.2	0.00171
471.4	0.00173
471.6	0.00182
471.8	0.00196
472.0	0.00215
472.2	0.00232
472.4	0.00251
472.6	0.00265
472.8	0.00286
473.0	0.00305
473.2	0.00316
473.4	0.00327
473.6	0.00335
473.8	0.00334
474.0	0.00319
474.2	0.00314
474.4	0.00296
474.6	0.00282
474.8	0.00263
475.0	0.00246
475.2	0.00224
475.4	0.00214
475.6	0.00189
475.8	0.00182
476.0	0.00168
476.2	0.00168
476.4	0.00161
476.6	0.00156
476.8	0.00161
477.0	0.00159
477.2	0.00153
477.4	0.00154
477.6	0.0015
477.8	0.00146
478.0	0.00144
478.2	0.00137
478.4	0.00127
478.6	0.00119
478.8	0.00118
479.0	0.00106
479.2	9.9476e-04
479.4	8.8734e-04
479.6	7.8668e-04
479.8	7.4711e-04
480.0	6.861e-04
480.2	5.8146e-04
480.4	5.5091e-04
480.6	5.1192e-04
480.8	4.9454e-04
481.0	4.3561e-04
481.2	4.3345e-04
481.4	3.6082e-04
481.6	3.9185e-04
481.8	3.6667e-04
482.0	3.5065e-04
482.2	3.7444e-04
482.4	3.3342e-04
482.6	3.4704e-04
482.8	3.0304e-04
483.0	3.5044e-04
483.2	3.5464e-04
483.4	4.0937e-04
483.6	3.9491e-04
483.8	3.9295e-04
484.0	4.1171e-04
484.2	4.5595e-04
484.4	4.5768e-04
484.6	5.1117e-04
484.8	5.2098e-04
485.0	5.9322e-04
485.2	6.57e-04
485.4	7.0327e-04
485.6	7.9219e-04
485.8	8.7894e-04
486.0	9.6734e-04
486.2	0.001
486.4	0.00103
486.6	0.00113
486.8	0.00116
487.0	0.00117
487.2	0.00115
487.4	0.00113
487.6	0.00108
487.8	9.7191e-04
488.0	9.5658e-04
488.2	8.8199e-04
488.4	8.1042e-04
488.6	7.4285e-04
488.8	7.1502e-04
489.0	6.7535e-04
489.2	6.4839e-04
489.4	6.3269e-04
489.6	6.2455e-04
489.8	6.0369e-04
490.0	5.4226e-04
490.2	5.3004e-04
490.4	5.4801e-04
490.6	5.436e-04
490.8	5.8615e-04
491.0	6.374e-04
491.2	6.4822e-04
491.4	6.6249e-04
491.6	7.1002e-04
491.8	7.8995e-04
492.0	8.6059e-04
492.2	9.6848e-04
492.4	0.00108
492.6	0.00117
492.8	0.00132
493.0	0.00142
493.2	0.00158
493.4	0.00172
493.6	0.00189
493.8	0.00196
494.0	0.0021
494.2	0.00223
494.4	0.00225
494.6	0.0023
494.8	0.00228
495.0	0.00224
495.2	0.00217
495.4	0.00213
495.6	0.00204
495.8	0.00195
496.0	0.00187
496.2	0.00179
496.4	0.00177
496.6	0.00173
496.8	0.00168
497.0	0.00165
497.2	0.00167
497.4	0.00167
497.6	0.00168
497.8	0.00174
498.0	0.00176
498.2	0.0018
498.4	0.00186
498.6	0.00189
498.8	0.00197
499.0	0.002
499.2	0.00206
499.4	0.00206
499.6	0.00207
499.8	0.00209
500.0	0.00211
500.2	0.00206
500.4	0.002
500.6	0.00194
500.8	0.0019
501.0	0.00183
501.2	0.00175
501.4	0.0017
501.6	0.00155
501.8	0.00156
502.0	0.00149
502.2	0.00143
502.4	0.00138
502.6	0.00136
502.8	0.00128
503.0	0.00126
503.2	0.00125
503.4	0.00129
503.6	0.00129
503.8	0.00129
504.0	0.00132
504.2	0.00135
504.4	0.00142
504.6	0.00148
504.8	0.00159
505.0	0.00168
505.2	0.0018
505.4	0.00199
505.6	0.00212
505.8	0.00234
506.0	0.00259
506.2	0.00281
506.4	0.00316
506.6	0.00354
506.8	0.00397
507.0	0.00441
507.2	0.00493
507.4	0.00543
507.6	0.00594
507.8	0.00649
508.0	0.00707
508.2	0.00761
508.4	0.00804
508.6	0.00845
508.8	0.00876
509.0	0.00907
509.2	0.00927
509.4	0.00939
509.6	0.00944
509.8	0.00942
510.0	0.00938
510.2	0.0093
510.4	0.00913
510.6	0.00898
510.8	0.00873
511.0	0.00848
511.2	0.00821
511.4	0.00789
511.6	0.00763
511.8	0.00735
512.0	0.00702
512.2	0.00671
512.4	0.00644
512.6	0.00612
512.8	0.00579
513.0	0.00553
513.2	0.00517
513.4	0.00487
513.6	0.00463
513.8	0.00438
514.0	0.00417
514.2	0.00398
514.4	0.00379
514.6	0.0036
514.8	0.00345
515.0	0.00329
515.2	0.0032
515.4	0.0031
515.6	0.00305
515.8	0.00298
516.0	0.00294
516.2	0.00289
516.4	0.00292
516.6	0.00294
516.8	0.00298
517.0	0.00306
517.2	0.0031
517.4	0.00322
517.6	0.00333
517.8	0.00343
518.0	0.00355
518.2	0.00375
518.4	0.00395
518.6	0.00415
518.8	0.00431
519.0	0.00447
519.2	0.00467
519.4	0.00483
519.6	0.005
519.8	0.00517
520.0	0.00528
520.2	0.00541
520.4	0.00547
520.6	0.00553
520.8	0.00553
521.0	0.00555
521.2	0.00551
521.4	0.00554
521.6	0.00545
521.8	0.00539
522.0	0.00534
522.2	0.00529
522.4	0.0052
522.6	0.00519
522.8	0.00521
523.0	0.00521
523.2	0.00518
523.4	0.00522
523.6	0.00529
523.8	0.00538
524.0	0.00543
524.2	0.00554
524.4	0.00568
524.6	0.00576
524.8	0.00596
525.0	0.00609
525.2	0.00624
525.4	0.00636
525.6	0.00646
525.8	0.00655
526.0	0.00664
526.2	0.0067
526.4	0.00673
526.6	0.00674
526.8	0.00674
527.0	0.00668
527.2	0.0066
527.4	0.00654
527.6	0.00641
527.8	0.0063
528.0	0.00615
528.2	0.0061
528.4	0.00597
528.6	0.0059
528.8	0.00575
529.0	0.00563
529.2	0.00553
529.4	0.00548
529.6	0.00543
529.8	0.00537
530.0	0.00536
530.2	0.0053
530.4	0.00529
530.6	0.0053
530.8	0.00532
531.0	0.0053
531.2	0.00529
531.4	0.00525
531.6	0.00527
531.8	0.00514
532.0	0.00511
532.2	0.00499
532.4	0.00491
532.6	0.00475
532.8	0.00456
533.0	0.0044
533.2	0.00416
533.4	0.00393
533.6	0.00371
533.8	0.00347
534.0	0.00326
534.2	0.00305
534.4	0.00281
534.6	0.0026
534.8	0.00244
535.0	0.00229
535.2	0.00213
535.4	0.00198
535.6	0.00185
535.8	0.00174
536.0	0.00164
536.2	0.00158
536.4	0.0015
536.6	0.00144
536.8	0.00138
537.0	0.00135
537.2	0.00127
537.4	0.00123
537.6	0.00125
537.8	0.00121
538.0	0.00117
538.2	0.00115
538.4	0.00116
538.6	0.00116
538.8	0.00115
539.0	0.00115
539.2	0.00115
539.4	0.00116
539.6	0.00117
539.8	0.00117
540.0	0.00119
540.2	0.00124
540.4	0.00122
540.6	0.00126
540.8	0.00129
541.0	0.00131
541.2	0.00131
541.4	0.00134
541.6	0.00137
541.8	0.00141
542.0	0.00141
542.2	0.00145
542.4	0.00149
542.6	0.00152
542.8	0.00156
543.0	0.00158
543.2	0.00164
543.4	0.00165
543.6	0.00171
543.8	0.00174
544.0	0.00174
544.2	0.0018
544.4	0.00183
544.6	0.00184
544.8	0.00188
545.0	0.00194
545.2	0.002
545.4	0.00202
545.6	0.00207
545.8	0.00212
546.0	0.00218
546.2	0.00227
546.4	0.00234
546.6	0.00244
546.8	0.00252
547.0	0.0026
547.2	0.0027
547.4	0.00278
547.6	0.00294
547.8	0.00308
548.0	0.00322
548.2	0.00338
548.4	0.00356
548.6	0.00375
548.8	0.00395
549.0	0.00416
549.2	0.00437
549.4	0.00463
549.6	0.00485
549.8	0.00507
550.0	0.00533
550.2	0.00556
550.4	0.00582
550.6	0.00604
550.8	0.00621
551.0	0.00639
551.2	0.00657
551.4	0.00668
551.6	0.00681
551.8	0.00688
552.0	0.00694
552.2	0.00688
552.4	0.00682
552.6	0.00673
552.8	0.00665
553.0	0.00646
553.2	0.00629
553.4	0.00607
553.6	0.00586
553.8	0.00562
554.0	0.00534
554.2	0.0051
554.4	0.00483
554.6	0.0046
554.8	0.00435
555.0	0.00413
555.2	0.00388
555.4	0.00364
555.6	0.00343
555.8	0.00325
556.0	0.00303
556.2	0.00289
556.4	0.00272
556.6	0.00257
556.8	0.00246
557.0	0.00231
557.2	0.00222
557.4	0.00211
557.6	0.00202
557.8	0.00193
558.0	0.00185
558.2	0.00175
558.4	0.00168
558.6	0.00164
558.8	0.00162
559.0	0.00157
559.2	0.00153
559.4	0.00148
559.6	0.00144
559.8	0.00145
560.0	0.00143
560.2	0.00146
560.4	0.00142
560.6	0.00142
560.8	0.00142
561.0	0.00141
561.2	0.0014
561.4	0.00146
561.6	0.00146
561.8	0.00149
562.0	0.00151
562.2	0.00154
562.4	0.00156
562.6	0.00162
562.8	0.00166
563.0	0.00173
563.2	0.00178
563.4	0.00182
563.6	0.00186
563.8	0.00196
564.0	0.002
564.2	0.00207
564.4	0.00216
564.6	0.00222
564.8	0.00231
565.0	0.00237
565.2	0.00242
565.4	0.00246
565.6	0.00253
565.8	0.00258
566.0	0.00262
566.2	0.00266
566.4	0.00268
566.6	0.00268
566.8	0.00272
567.0	0.00273
567.2	0.00274
567.4	0.00271
567.6	0.00268
567.8	0.00269
568.0	0.00266
568.2	0.00263
568.4	0.00263
568.6	0.00257
568.8	0.00258
569.0	0.00254
569.2	0.00252
569.4	0.00248
569.6	0.00247
569.8	0.0025
570.0	0.00247
570.2	0.00248
570.4	0.00247
570.6	0.00249
570.8	0.00253
571.0	0.00255
571.2	0.0026
571.4	0.00263
571.6	0.00265
571.8	0.00274
572.0	0.00277
572.2	0.00288
572.4	0.00294
572.6	0.00303
572.8	0.00313
573.0	0.00325
573.2	0.00337
573.4	0.00349
573.6	0.00363
573.8	0.00378
574.0	0.00397
574.2	0.00412
574.4	0.00428
574.6	0.00449
574.8	0.00467
575.0	0.00486
575.2	0.00511
575.4	0.00533
575.6	0.0055
575.8	0.00578
576.0	0.00598
576.2	0.00619
576.4	0.0064
576.6	0.00658
576.8	0.00671
577.0	0.00685
577.2	0.00696
577.4	0.00707
577.6	0.00713
577.8	0.0072
578.0	0.00725
578.2	0.00715
578.4	0.00714
578.6	0.00704
578.8	0.00692
579.0	0.0068
579.2	0.00666
579.4	0.00652
579.6	0.00632
579.8	0.00615
580.0	0.00594
580.2	0.00575
580.4	0.00552
580.6	0.0053
580.8	0.0051
581.0	0.00492
581.2	0.00473
581.4	0.00453
581.6	0.00432
581.8	0.00415
582.0	0.00401
582.2	0.00381
582.4	0.00367
582.6	0.00355
582.8	0.00343
583.0	0.00327
583.2	0.0032
583.4	0.00312
583.6	0.00301
583.8	0.00292
584.0	0.00283
584.2	0.00279
584.4	0.00274
584.6	0.00268
584.8	0.00267
585.0	0.00264
585.2	0.00263
585.4	0.00259
585.6	0.00262
585.8	0.00262
586.0	0.00264
586.2	0.00266
586.4	0.00272
586.6	0.00276
586.8	0.00283
587.0	0.00287
587.2	0.003
587.4	0.00308
587.6	0.00317
587.8	0.00328
588.0	0.0034
588.2	0.00352
588.4	0.00367
588.6	0.00383
588.8	0.004
589.0	0.00419
589.2	0.00436
589.4	0.00456
589.6	0.00477
589.8	0.00498
590.0	0.00517
590.2	0.00542
590.4	0.0057
590.6	0.00596
590.8	0.00613
591.0	0.00631
591.2	0.00653
591.4	0.00665
591.6	0.00687
591.8	0.00693
592.0	0.00696
592.2	0.00699
592.4	0.00695
592.6	0.00683
592.8	0.00672
593.0	0.00658
593.2	0.00641
593.4	0.0062
593.6	0.00598
593.8	0.00574
594.0	0.00551
594.2	0.00529
594.4	0.00508
594.6	0.00485
594.8	0.0046
595.0	0.00444
595.2	0.00425
595.4	0.00408
595.6	0.00392
595.8	0.00377
596.0	0.00366
596.2	0.00356
596.4	0.00343
596.6	0.00335
596.8	0.00331
597.0	0.00328
597.2	0.0032
597.4	0.00319
597.6	0.00317
597.8	0.00315
598.0	0.00314
598.2	0.00314
598.4	0.00315
598.6	0.0032
598.8	0.00323
599.0	0.00325
599.2	0.0033
599.4	0.00338
599.6	0.00345
599.8	0.00354
600.0	0.00363
600.2	0.00369
600.4	0.00376
600.6	0.00385
600.8	0.00398
601.0	0.00406
601.2	0.0042
601.4	0.00431
601.6	0.00443
601.8	0.00457
602.0	0.00469
602.2	0.00487
602.4	0.005
602.6	0.00517
602.8	0.00533
603.0	0.0055
603.2	0.00565
603.4	0.00581
603.6	0.00597
603.8	0.00617
604.0	0.00633
604.2	0.00646
604.4	0.00657
604.6	0.00669
604.8	0.00676
605.0	0.00686
605.2	0.00691
605.4	0.00692
605.6	0.00693
605.8	0.00688
606.0	0.00675
606.2	0.00665
606.4	0.00653
606.6	0.00636
606.8	0.00617
607.0	0.00598
607.2	0.00571
607.4	0.00545
607.6	0.00525
607.8	0.005
608.0	0.00476
608.2	0.00453
608.4	0.00431
608.6	0.00414
608.8	0.00399
609.0	0.0038
609.2	0.00368
609.4	0.00353
609.6	0.00346
609.8	0.00334
610.0	0.00328
610.2	0.00319
610.4	0.00316
610.6	0.00306
610.8	0.00303
611.0	0.00296
611.2	0.00293
611.4	0.0028
611.6	0.00274
611.8	0.00265
612.0	0.00256
612.2	0.00247
612.4	0.00239
612.6	0.00229
612.8	0.0022
613.0	0.00214
613.2	0.00205
613.4	0.002
613.6	0.00197
613.8	0.00194
614.0	0.00193
614.2	0.00198
614.4	0.00203
614.6	0.00205
614.8	0.00211
615.0	0.00221
615.2	0.00234
615.4	0.00242
615.6	0.00256
615.8	0.00273
616.0	0.0029
616.2	0.0031
616.4	0.00333
616.6	0.00361
616.8	0.00387
617.0	0.00412
617.2	0.0044
617.4	0.00467
617.6	0.00487
617.8	0.00505
618.0	0.00518
618.2	0.0053
618.4	0.00533
618.6	0.00529
618.8	0.00521
619.0	0.00508
619.2	0.00484
619.4	0.00458
619.6	0.00427
619.8	0.00398
620.0	0.00362
620.2	0.00329
620.4	0.00296
620.6	0.00266
620.8	0.00237
621.0	0.00211
621.2	0.00192
621.4	0.0017
621.6	0.00152
621.8	0.00137
622.0	0.00127
622.2	0.00115
622.4	0.00106
622.6	9.8446e-04
622.8	9.3278e-04
623.0	8.506e-04
623.2	8.0972e-04
623.4	7.3961e-04
623.6	7.2123e-04
623.8	6.933e-04
624.0	6.9233e-04
624.2	6.1947e-04
624.4	6.2123e-04
624.6	5.7974e-04
624.8	5.731e-04
625.0	5.5884e-04
625.2	5.6345e-04
625.4	5.4831e-04
625.6	5.2935e-04
625.8	5.2415e-04
626.0	5.3501e-04
626.2	4.9908e-04
626.4	5.1742e-04
626.6	5.0292e-04
626.8	5.2058e-04
627.0	5.0902e-04
627.2	4.8763e-04
627.4	4.9928e-04
627.6	5.4155e-04
627.8	5.4339e-04
628.0	5.4387e-04
628.2	5.7154e-04
628.4	5.7805e-04
628.6	5.9038e-04
628.8	6.2519e-04
629.0	6.5492e-04
629.2	6.9898e-04
629.4	7.4365e-04
629.6	7.8775e-04
629.8	8.4932e-04
630.0	9.4024e-04
630.2	0.00101
630.4	0.00111
630.6	0.00122
630.8	0.00138
631.0	0.00155
631.2	0.00173
631.4	0.00197
631.6	0.00224
631.8	0.00259
632.0	0.00295
632.2	0.00338
632.4	0.00377
632.6	0.00419
632.8	0.00462
633.0	0.00489
633.2	0.00519
633.4	0.0054
633.6	0.00555
633.8	0.00558
634.0	0.00559
634.2	0.00544
634.4	0.00523
634.6	0.00499
634.8	0.00468
635.0	0.00434
635.2	0.00396
635.4	0.00357
635.6	0.00321
635.8	0.00284
636.0	0.00256
636.2	0.00231
636.4	0.00205
636.6	0.00188
636.8	0.0017
637.0	0.00156
637.2	0.00148
637.4	0.0014
637.6	0.00132
637.8	0.00124
638.0	0.00119
638.2	0.00116
638.4	0.00112
638.6	0.00113
638.8	0.0011
639.0	0.0011
639.2	0.0011
639.4	0.00111
639.6	0.00112
639.8	0.00114
640.0	0.00115
640.2	0.00119
640.4	0.00123
640.6	0.00127
640.8	0.00132
641.0	0.00138
641.2	0.0014
641.4	0.00146
641.6	0.00151
641.8	0.00155
642.0	0.00159
642.2	0.00161
642.4	0.00165
642.6	0.00167
642.8	0.00166
643.0	0.00163
643.2	0.00165
643.4	0.00163
643.6	0.00158
643.8	0.00154
644.0	0.00149
644.2	0.00147
644.4	0.00137
644.6	0.0013
644.8	0.00123
645.0	0.00113
645.2	0.00108
645.4	0.00101
645.6	9.2007e-04
645.8	8.4964e-04
646.0	7.7057e-04
646.2	7.0944e-04
646.4	6.4378e-04
646.6	5.6239e-04
646.8	5.2429e-04
647.0	4.8086e-04
647.2	4.4255e-04
647.4	4.0919e-04
647.6	3.8218e-04
647.8	3.467e-04
648.0	3.2603e-04
648.2	3.0114e-04
648.4	2.8706e-04
648.6	2.6981e-04
648.8	2.5217e-04
649.0	2.2896e-04
649.2	2.3438e-04
649.4	2.0929e-04
649.6	2.0751e-04
649.8	2.0314e-04
650.0	2.0777e-04
650.2	1.929e-04
650.4	1.5879e-04
650.6	1.7461e-04
650.8	1.4866e-04
651.0	1.6937e-04
651.2	1.4483e-04
651.4	1.5798e-04
651.6	1.5181e-04
651.8	1.6737e-04
652.0	1.4444e-04
652.2	1.5276e-04
652.4	1.5185e-04
652.6	1.5161e-04
652.8	1.4274e-04
653.0	1.5367e-04
653.2	1.2025e-04
653.4	1.3873e-04
653.6	1.3561e-04
653.8	1.5275e-04
654.0	1.4301e-04
654.2	1.6048e-04
654.4	1.2916e-04
654.6	1.4294e-04
654.8	1.6002e-04
655.0	1.3718e-04
655.2	1.5488e-04
655.4	1.599e-04
655.6	1.6167e-04
655.8	1.57e-04
656.0	1.4132e-04
656.2	1.7302e-04
656.4	1.5594e-04
656.6	1.6079e-04
656.8	1.4863e-04
657.0	1.5666e-04
657.2	1.6727e-04
657.4	1.7386e-04
657.6	1.6676e-04
657.8	1.6897e-04
658.0	1.8997e-04
658.2	2.1096e-04
658.4	1.8124e-04
658.6	1.8714e-04
658.8	2.0066e-04
659.0	2.0663e-04
659.2	2.1138e-04
659.4	1.9724e-04
659.6	2.1499e-04
659.8	2.0701e-04
660.0	2.181e-04
660.2	1.9505e-04
660.4	2.3566e-04
660.6	2.348e-04
660.8	2.4142e-04
661.0	2.7082e-04
661.2	2.7929e-04
661.4	2.6758e-04
661.6	2.8618e-04
661.8	3.1137e-04
662.0	3.1966e-04
662.2	3.2667e-04
662.4	3.8542e-04
662.6	3.8013e-04
662.8	4.1783e-04
663.0	4.0921e-04
663.2	4.502e-04
663.4	4.883e-04
663.6	5.4033e-04
663.8	5.6708e-04
664.0	6.381e-04
664.2	6.9547e-04
664.4	7.6094e-04
664.6	8.491e-04
664.8	9.5137e-04
665.0	0.00108
665.2	0.00118
665.4	0.00133
665.6	0.00152
665.8	0.00171
666.0	0.00193
666.2	0.00214
666.4	0.00238
666.6	0.00257
666.8	0.00278
667.0	0.00302
667.2	0.00323
667.4	0.00344
667.6	0.0036
667.8	0.00374
668.0	0.00386
668.2	0.00398
668.4	0.00407
668.6	0.00409
668.8	0.00412
669.0	0.00408
669.2	0.00403
669.4	0.00394
669.6	0.00383
669.8	0.00372
670.0	0.00355
670.2	0.00336
670.4	0.00318
670.6	0.00296
670.8	0.00279
671.0	0.00258
671.2	0.0024
671.4	0.00225
671.6	0.00212
671.8	0.00198
672.0	0.00183
672.2	0.00173
672.4	0.00164
672.6	0.00156
672.8	0.00151
673.0	0.00311
673.2	0.00403
673.4	0.00402
673.6	0.00395
673.8	0.00389
674.0	0.00387
674.2	0.00388
674.4	0.00387
674.6	0.0038
674.8	0.00379
675.0	0.00379
675.2	0.00381
675.4	0.0038
675.6	0.00379
675.8	0.00381
676.0	0.00384
676.2	0.00381
676.4	0.00385
676.6	0.00385
676.8	0.00389
677.0	0.00389
677.2	0.00392
677.4	0.00397
677.6	0.00398
677.8	0.00403
678.0	0.00406
678.2	0.0041
678.4	0.00414
678.6	0.00421
678.8	0.00428
679.0	0.00432
679.2	0.00443
679.4	0.0045
679.6	0.00457
679.8	0.00467
680.0	0.00474
680.2	0.00488
680.4	0.00499
680.6	0.0051
680.8	0.00522
681.0	0.00537
681.2	0.00553
681.4	0.00573
681.6	0.00591
681.8	0.00609
682.0	0.00634
682.2	0.00656
682.4	0.00682
682.6	0.00714
682.8	0.00745
683.0	0.0078
683.2	0.00826
683.4	0.00874
683.6	0.00922
683.8	0.00974
684.0	0.01035
684.2	0.01106
684.4	0.01179
684.6	0.01261
684.8	0.01356
685.0	0.01459
685.2	0.01574
685.4	0.01712
685.6	0.0187
685.8	0.02032
686.0	0.02222
686.2	0.02434
686.4	0.02684
686.6	0.02939
686.8	0.03235
687.0	0.03586
687.2	0.03959
687.4	0.04365
687.6	0.04802
687.8	0.05295
688.0	0.05833
688.2	0.06409
688.4	0.07006
688.6	0.07672
688.8	0.08374
689.0	0.09091
689.2	0.09899
689.4	0.10703
689.6	0.11554
689.8	0.12469
690.0	0.13413
690.2	0.14351
690.4	0.15359
690.6	0.16309
690.8	0.17425
691.0	0.18459
691.2	0.19441
691.4	0.20589
691.6	0.21776
691.8	0.22972
692.0	0.24044
692.2	0.25082
692.4	0.26215
692.6	0.27235
692.8	0.28204
693.0	0.29181
693.2	0.3016
693.4	0.31137
693.6	0.32152
693.8	0.33019
694.0	0.34034
694.2	0.35003
694.4	0.3567
694.6	0.36456
694.8	0.37255
695.0	0.38078
695.2	0.39002
695.4	0.39721
695.6	0.40205
695.8	0.40716
696.0	0.41201
696.2	0.41795
696.4	0.42407
696.6	0.42837
696.8	0.43386
697.0	0.43824
697.2	0.44399
697.4	0.44689
697.6	0.44855
697.8	0.45117
698.0	0.45416
698.2	0.45559
698.4	0.45727
698.6	0.45935
698.8	0.46104
699.0	0.46253
699.2	0.46268
699.4	0.46456
699.6	0.46443
699.8	0.46487
700.0	0.46547
700.2	0.46642
700.4	0.46743
700.6	0.47095
700.8	0.47408
701.0	0.47676
701.2	0.48135
701.4	0.48574
701.6	0.49227
701.8	0.49824
702.0	0.50708
702.2	0.5173
702.4	0.52962
702.6	0.54428
702.8	0.55937
703.0	0.57666
703.2	0.59702
703.4	0.61913
703.6	0.64174
703.8	0.66755
704.0	0.69266
704.2	0.71828
704.4	0.74302
704.6	0.76867
704.8	0.79376
705.0	0.81759
705.2	0.83888
705.4	0.85731
705.6	0.87285
705.8	0.89027
706.0	0.90498
706.2	0.91696
706.4	0.92778
706.6	0.93464
706.8	0.94023
707.0	0.94524
707.2	0.95029
707.4	0.95068
707.6	0.9504
707.8	0.9502
708.0	0.94953
708.2	0.94999
708.4	0.95384
708.6	0.95112
708.8	0.94921
709.0	0.94659
709.2	0.9463
709.4	0.94643
709.6	0.94705
709.8	0.94699
710.0	0.94678
710.2	0.94586
710.4	0.94715
710.6	0.94782
710.8	0.94813
711.0	0.94562
711.2	0.94401
711.4	0.94451
711.6	0.94426
711.8	0.94491
712.0	0.94397
712.2	0.94175
712.4	0.94124
712.6	0.94174
712.8	0.9427
713.0	0.94285
713.2	0.94307
713.4	0.9464
713.6	0.94439
713.8	0.94359
714.0	0.94307
714.2	0.94388
714.4	0.94525
714.6	0.94395
714.8	0.94561
715.0	0.94627
715.2	0.94645
715.4	0.9459
715.6	0.94543
715.8	0.94471
716.0	0.94437
716.2	0.94445
716.4	0.94125
716.6	0.93979
716.8	0.93983
717.0	0.94049
717.2	0.94105
717.4	0.94257
717.6	0.94508
717.8	0.94642
718.0	0.94578
718.2	0.94462
718.4	0.94455
718.6	0.94471
718.8	0.94448
719.0	0.9461
719.2	0.94603
719.4	0.94463
719.6	0.94257
719.8	0.94265
720.0	0.94205
720.2	0.94119
720.4	0.94151
720.6	0.94116
720.8	0.93997
721.0	0.9414
721.2	0.94011
721.4	0.93929
721.6	0.94069
721.8	0.93955
722.0	0.93916
722.2	0.93889
722.4	0.94142
722.6	0.94138
722.8	0.94324
723.0	0.94407
723.2	0.94476
723.4	0.94796
723.6	0.94934
723.8	0.94893
724.0	0.94773
724.2	0.94786
724.4	0.94826
724.6	0.94759
724.8	0.94798
725.0	0.94835
725.2	0.94945
725.4	0.95039
725.6	0.95343
725.8	0.9546
726.0	0.95503
726.2	0.95486
726.4	0.95432
726.6	0.95142
726.8	0.95056
727.0	0.95019
727.2	0.94986
727.4	0.94884
727.6	0.94814
727.8	0.94732
728.0	0.94971
728.2	0.94941
728.4	0.94825
728.6	0.94945
728.8	0.94919
729.0	0.94952
729.2	0.94952
729.4	0.94895
729.6	0.94954
729.8	0.9489
730.0	0.94937
730.2	0.94979
730.4	0.95107
730.6	0.95068
730.8	0.94916
731.0	0.9455
731.2	0.94282
731.4	0.9423
731.6	0.94519
731.8	0.94502
732.0	0.94731
732.2	0.94803
732.4	0.94684
732.6	0.94413
732.8	0.94456
733.0	0.94471
733.2	0.94424
733.4	0.94457
733.6	0.94351
733.8	0.94489
734.0	0.94398
734.2	0.94428
734.4	0.94363
734.6	0.94486
734.8	0.94476
735.0	0.94553
735.2	0.94408
735.4	0.94451
735.6	0.94668
735.8	0.94558
736.0	0.94402
736.2	0.94477
736.4	0.94516
736.6	0.94531
736.8	0.94312
737.0	0.94222
737.2	0.94196
737.4	0.94184
737.6	0.93964
737.8	0.94119
738.0	0.94325
738.2	0.94342
738.4	0.94117
738.6	0.94021
738.8	0.93972
739.0	0.9417
739.2	0.94228
739.4	0.94345
739.6	0.94402
739.8	0.94591
740.0	0.94607
740.2	0.94799
740.4	0.94705
740.6	0.94486
740.8	0.94625
741.0	0.94652
741.2	0.94557
741.4	0.94655
741.6	0.94559
741.8	0.94503
742.0	0.94343
742.2	0.94223
742.4	0.94262
742.6	0.94284
742.8	0.94191
743.0	0.94093
743.2	0.94057
743.4	0.94243
743.6	0.94438
743.8	0.94481
744.0	0.94313
744.2	0.94342
744.4	0.94331
744.6	0.94521
744.8	0.94692
745.0	0.94593
745.2	0.94639
745.4	0.94881
745.6	0.94926
745.8	0.94781
746.0	0.94631
746.2	0.94608
746.4	0.94441
746.6	0.94318
746.8	0.94484
747.0	0.9457
747.2	0.94609
747.4	0.94946
747.6	0.94944
747.8	0.94733
748.0	0.94766
748.2	0.94767
748.4	0.94767
748.6	0.9475
748.8	0.94605
749.0	0.9439
749.2	0.94139
749.4	0.94131
749.6	0.94332
749.8	0.94483
750.0	0.94619
750.2	0.94672
750.4	0.94642
750.6	0.94607
750.8	0.94514
751.0	0.9442
751.2	0.94385
751.4	0.94361
751.6	0.94344
751.8	0.94419
752.0	0.94413
752.2	0.94534
752.4	0.94534
752.6	0.94561
752.8	0.94533
753.0	0.94534
753.2	0.9459
753.4	0.94682
753.6	0.94661
753.8	0.94622
754.0	0.94782
754.2	0.94766
754.4	0.94683
754.6	0.94572
754.8	0.94593
755.0	0.94701
755.2	0.94835
755.4	0.94918
755.6	0.95092
755.8	0.94888
756.0	0.94822
756.2	0.94941
756.4	0.95007
756.6	0.9507
756.8	0.95105
757.0	0.94834
757.2	0.94786
757.4	0.94868
757.6	0.94961
757.8	0.94723
758.0	0.94683
758.2	0.94681
758.4	0.9499
758.6	0.95241
758.8	0.95418
759.0	0.95291
759.2	0.95257
759.4	0.95311
759.6	0.95216
759.8	0.94919
760.0	0.947
760.2	0.94811
760.4	0.94831
760.6	0.94916
760.8	0.95044
761.0	0.9517
761.2	0.95065
761.4	0.94981
761.6	0.94865
761.8	0.94849
762.0	0.94857
762.2	0.94959
762.4	0.94993
762.6	0.94691
762.8	0.94819
763.0	0.94874
763.2	0.95053
763.4	0.94779
763.6	0.94535
763.8	0.9451
764.0	0.94596
764.2	0.94625
764.4	0.94543
764.6	0.94507
764.8	0.94458
765.0	0.94527
765.2	0.94471
765.4	0.94624
765.6	0.94767
765.8	0.94624
766.0	0.9446
766.2	0.94513
766.4	0.94679
766.6	0.94739
766.8	0.94592
767.0	0.94592
767.2	0.94735
767.4	0.94615
767.6	0.94575
767.8	0.94702
768.0	0.94675
768.2	0.9472
768.4	0.94702
768.6	0.94786
768.8	0.94682
769.0	0.94769
769.2	0.9481
769.4	0.94834
769.6	0.94864
769.8	0.94779
770.0	0.94933
770.2	0.95171
770.4	0.95152
770.6	0.95126
770.8	0.95111
771.0	0.95123
771.2	0.95017
771.4	0.95265
771.6	0.95507
771.8	0.95463
772.0	0.9545
772.2	0.95407
772.4	0.95187
772.6	0.952
772.8	0.95163
773.0	0.95229
773.2	0.95037
773.4	0.94903
773.6	0.94954
773.8	0.94947
774.0	0.94897
774.2	0.9489
774.4	0.94986
774.6	0.9514
774.8	0.95293
775.0	0.95233
775.2	0.95076
775.4	0.95033
775.6	0.94805
775.8	0.94583
776.0	0.94526
776.2	0.94434
776.4	0.94471
776.6	0.94714
776.8	0.94654
777.0	0.94664
777.2	0.94677
777.4	0.94637
777.6	0.94633
777.8	0.94562
778.0	0.94537
778.2	0.94622
778.4	0.94601
778.6	0.94491
778.8	0.94366
779.0	0.94137
779.2	0.94353
779.4	0.94281
779.6	0.94306
779.8	0.94515
780.0	0.94548
780.2	0.9466
780.4	0.94772
780.6	0.948
780.8	0.9466
781.0	0.9448
781.2	0.94583
781.4	0.94871
781.6	0.94808
781.8	0.94654
782.0	0.94671
782.2	0.94666
782.4	0.94884
782.6	0.95045
782.8	0.95008
783.0	0.95035
783.2	0.94982
783.4	0.95209
783.6	0.95138
783.8	0.95081
784.0	0.95114
784.2	0.95202
784.4	0.95335
784.6	0.95214
784.8	0.9528
785.0	0.95344
785.2	0.95244
785.4	0.95182
785.6	0.95068
785.8	0.95107
786.0	0.95146
786.2	0.95139
786.4	0.9527
786.6	0.95166
786.8	0.95294
787.0	0.9533
787.2	0.95351
787.4	0.95217
787.6	0.95137
787.8	0.95174
788.0	0.95353
788.2	0.95237
788.4	0.95244
788.6	0.95148
788.8	0.95039
789.0	0.95035
789.2	0.94972
789.4	0.94746
789.6	0.94743
789.8	0.94425
790.0	0.94299
790.2	0.94353
790.4	0.94407
790.6	0.94297
790.8	0.94167
791.0	0.94452
791.2	0.94797
791.4	0.94924
791.6	0.94964
791.8	0.94781
792.0	0.94556
792.2	0.94676
792.4	0.94811
792.6	0.948
792.8	0.94939
793.0	0.94895
793.2	0.94908
793.4	0.94781
793.6	0.94654
793.8	0.94493
794.0	0.94198
794.2	0.94281
794.4	0.944
794.6	0.94451
794.8	0.9449
795.0	0.94664
795.2	0.94632
795.4	0.946
795.6	0.94755
795.8	0.94914
796.0	0.94753
796.2	0.94706
796.4	0.94825
796.6	0.9498
796.8	0.95035
797.0	0.94983
797.2	0.95054
797.4	0.95285
797.6	0.95346
797.8	0.95257
798.0	0.94916
798.2	0.94675
798.4	0.94989
798.6	0.9523
798.8	0.95234
799.0	0.9525
799.2	0.95055
799.4	0.95029
799.6	0.95276
799.8	0.95483
800.0	0.95328
800.2	0.95262
800.4	0.95354
800.6	0.95255
800.8	0.95384
801.0	0.95214
801.2	0.95182
801.4	0.95255
801.6	0.954
801.8	0.9555
802.0	0.95778
802.2	0.95956
802.4	0.95951
802.6	0.95956
802.8	0.96129
803.0	0.96247
803.2	0.9599
803.4	0.9574
803.6	0.95569
803.8	0.95559
804.0	0.9566
804.2	0.95331
804.4	0.9524
804.6	0.95234
804.8	0.95158
805.0	0.9524
805.2	0.95347
805.4	0.95241
805.6	0.95204
805.8	0.95106
806.0	0.95203
806.2	0.95328
806.4	0.95164
806.6	0.95148
806.8	0.95049
807.0	0.94809
807.2	0.94803
807.4	0.9496
807.6	0.94856
807.8	0.94735
808.0	0.94607
808.2	0.94489
808.4	0.94443
808.6	0.94441
808.8	0.94636
809.0	0.94733
809.2	0.94736
809.4	0.94513
809.6	0.9458
809.8	0.94664
810.0	0.94482
810.2	0.94342
810.4	0.94192
810.6	0.94543
810.8	0.94638
811.0	0.94761
811.2	0.94777
811.4	0.94684
811.6	0.94814
811.8	0.94697
812.0	0.9457
812.2	0.94634
812.4	0.94836
812.6	0.94835
812.8	0.94746
813.0	0.9498
813.2	0.95042
813.4	0.95043
813.6	0.95066
813.8	0.95067
814.0	0.95095
814.2	0.95089
814.4	0.95209
814.6	0.9542
814.8	0.95441
815.0	0.9534
815.2	0.95161
815.4	0.94966
815.6	0.95067
815.8	0.95369
816.0	0.95674
816.2	0.95586
816.4	0.95386
816.6	0.95315
816.8	0.95407
817.0	0.95536
817.2	0.95704
817.4	0.95833
817.6	0.95693
817.8	0.95512
818.0	0.95338
818.2	0.95243
818.4	0.9522
818.6	0.95309
818.8	0.95445
819.0	0.95248
819.2	0.95022
819.4	0.95103
819.6	0.95001
819.8	0.9502
820.0	0.9532
820.2	0.95216
820.4	0.9513
820.6	0.94927
820.8	0.94964
821.0	0.95194
821.2	0.95225
821.4	0.95067
821.6	0.94893
821.8	0.95034
822.0	0.95005
822.2	0.95022
822.4	0.94974
822.6	0.94994
822.8	0.94967
823.0	0.95105
823.2	0.95042
823.4	0.95137
823.6	0.9515
823.8	0.95127
824.0	0.94874
824.2	0.94632
824.4	0.94601
824.6	0.94398
824.8	0.94363
825.0	0.94454
825.2	0.94573
825.4	0.9482
825.6	0.94813
825.8	0.94613
826.0	0.94619
826.2	0.94733
826.4	0.94733
826.6	0.94895
826.8	0.94866
827.0	0.94651
827.2	0.94514
827.4	0.94697
827.6	0.94572
827.8	0.94707
828.0	0.94684
828.2	0.94494
828.4	0.94593
828.6	0.94915
828.8	0.94972
829.0	0.94919
829.2	0.9491
829.4	0.94929
829.6	0.94969
829.8	0.94815
830.0	0.94791
830.2	0.948
830.4	0.94753
830.6	0.94819
830.8	0.95152
831.0	0.95154
831.2	0.94857
831.4	0.94762
831.6	0.94843
831.8	0.95008
832.0	0.95313
832.2	0.95484
832.4	0.95495
832.6	0.95484
832.8	0.9536
833.0	0.95252
833.2	0.94832
833.4	0.94909
833.6	0.94992
833.8	0.95073
834.0	0.95042
834.2	0.95189
834.4	0.94919
834.6	0.94808
834.8	0.94792
835.0	0.94764
835.2	0.94728
835.4	0.94808
835.6	0.95054
835.8	0.95113
836.0	0.95025
836.2	0.95074
836.4	0.94992
836.6	0.95172
836.8	0.95035
837.0	0.94885
837.2	0.94746
837.4	0.94701
837.6	0.94894
837.8	0.94714
838.0	0.94638
838.2	0.94381
838.4	0.94392
838.6	0.94337
838.8	0.94316
839.0	0.94578
839.2	0.94576
839.4	0.9436
839.6	0.94449
839.8	0.94595
840.0	0.94578
840.2	0.94193
840.4	0.94045
840.6	0.94054
840.8	0.94203
841.0	0.94222
841.2	0.94114
841.4	0.94106
841.6	0.9437
841.8	0.94469
842.0	0.94349
842.2	0.94334
842.4	0.94341
842.6	0.94197
842.8	0.93988
843.0	0.94343
843.2	0.94368
843.4	0.94394
843.6	0.9465
843.8	0.94702
844.0	0.94458
844.2	0.94326
844.4	0.94446
844.6	0.94522
844.8	0.94488
845.0	0.94798
845.2	0.94787
845.4	0.94719
845.6	0.94864
845.8	0.95033
846.0	0.95147
846.2	0.94931
846.4	0.95031
846.6	0.95309
846.8	0.95274
847.0	0.95271
847.2	0.95089
847.4	0.9502
847.6	0.9515
847.8	0.95094
848.0	0.95155
848.2	0.95359
848.4	0.95113
848.6	0.95005
848.8	0.94935
849.0	0.95007
849.2	0.95052
849.4	0.9488
849.6	0.94848
849.8	0.94824
850.0	0.94748
850.2	0.94542
850.4	0.94588
850.6	0.94655
850.8	0.94473
851.0	0.94287
851.2	0.94505
851.4	0.94635
851.6	0.94719
851.8	0.94723
852.0	0.94435
852.2	0.94481
852.4	0.94446
852.6	0.94524
852.8	0.94465
853.0	0.94428
853.2	0.94455
853.4	0.94562
853.6	0.94566
853.8	0.94512
854.0	0.94463
854.2	0.94537
854.4	0.94637
854.6	0.94591
854.8	0.94583
855.0	0.94501
855.2	0.94446
855.4	0.94342
855.6	0.94246
855.8	0.94409
856.0	0.9414
856.2	0.94237
856.4	0.94334
856.6	0.94407
856.8	0.94457
857.0	0.94498
857.2	0.94551
857.4	0.94495
857.6	0.94595
857.8	0.94578
858.0	0.94447
858.2	0.94432
858.4	0.94342
858.6	0.94475
858.8	0.94517
859.0	0.94376
859.2	0.94233
859.4	0.94187
859.6	0.93976
859.8	0.94104
860.0	0.9413