wavelength	fluorescence
nm	a.u.
605.0	0.000
605.5	0.000
606.0	0.000
606.5	0.000
607.0	0.000
607.5	0.000
608.0	0.000
608.5	0.000
609.0	0.000
609.5	0.000
610.0	0.001
610.5	0.001
611.0	0.001
611.5	0.001
612.0	0.001
612.5	0.001
613.0	0.001
613.5	0.001
614.0	0.001
614.5	0.001
615.0	0.001
615.5	0.001
616.0	0.001
616.5	0.001
617.0	0.001
617.5	0.001
618.0	0.001
618.5	0.001
619.0	0.002
619.5	0.002
620.0	0.002
620.5	0.002
621.0	0.002
621.5	0.002
622.0	0.002
622.5	0.002
623.0	0.003
623.5	0.003
624.0	0.003
624.5	0.003
625.0	0.003
625.5	0.004
626.0	0.004
626.5	0.004
627.0	0.004
627.5	0.005
628.0	0.005
628.5	0.005
629.0	0.006
629.5	0.006
630.0	0.007
630.5	0.007
631.0	0.008
631.5	0.008
632.0	0.009
632.5	0.009
633.0	0.010
633.5	0.011
634.0	0.011
634.5	0.012
635.0	0.013
635.5	0.014
636.0	0.015
636.5	0.016
637.0	0.017
637.5	0.019
638.0	0.020
638.5	0.021
639.0	0.023
639.5	0.024
640.0	0.026
640.5	0.028
641.0	0.030
641.5	0.032
642.0	0.034
642.5	0.036
643.0	0.039
643.5	0.041
644.0	0.044
644.5	0.047
645.0	0.051
645.5	0.054
646.0	0.058
646.5	0.062
647.0	0.067
647.5	0.071
648.0	0.077
648.5	0.082
649.0	0.087
649.5	0.093
650.0	0.099
650.5	0.105
651.0	0.112
651.5	0.120
652.0	0.128
652.5	0.136
653.0	0.144
653.5	0.154
654.0	0.164
654.5	0.174
655.0	0.185
655.5	0.197
656.0	0.209
656.5	0.223
657.0	0.237
657.5	0.251
658.0	0.267
658.5	0.283
659.0	0.300
659.5	0.318
660.0	0.335
660.5	0.354
661.0	0.373
661.5	0.393
662.0	0.414
662.5	0.435
663.0	0.456
663.5	0.478
664.0	0.500
664.5	0.521
665.0	0.544
665.5	0.566
666.0	0.589
666.5	0.612
667.0	0.634
667.5	0.657
668.0	0.680
668.5	0.702
669.0	0.724
669.5	0.745
670.0	0.766
670.5	0.787
671.0	0.808
671.5	0.827
672.0	0.846
672.5	0.863
673.0	0.880
673.5	0.895
674.0	0.910
674.5	0.923
675.0	0.935
675.5	0.946
676.0	0.957
676.5	0.967
677.0	0.975
677.5	0.982
678.0	0.988
678.5	0.992
679.0	0.996
679.5	0.998
680.0	1.000
680.5	1.000
681.0	0.998
681.5	0.996
682.0	0.992
682.5	0.988
683.0	0.982
683.5	0.976
684.0	0.969
684.5	0.962
685.0	0.954
685.5	0.946
686.0	0.937
686.5	0.928
687.0	0.918
687.5	0.907
688.0	0.897
688.5	0.886
689.0	0.875
689.5	0.863
690.0	0.852
690.5	0.840
691.0	0.828
691.5	0.816
692.0	0.804
692.5	0.792
693.0	0.781
693.5	0.769
694.0	0.759
694.5	0.748
695.0	0.737
695.5	0.727
696.0	0.717
696.5	0.708
697.0	0.698
697.5	0.689
698.0	0.680
698.5	0.671
699.0	0.662
699.5	0.653
700.0	0.644
700.5	0.636
701.0	0.627
701.5	0.619
702.0	0.610
702.5	0.602
703.0	0.594
703.5	0.586
704.0	0.577
704.5	0.569
705.0	0.561
705.5	0.553
706.0	0.545
706.5	0.536
707.0	0.529
707.5	0.521
708.0	0.513
708.5	0.505
709.0	0.498
709.5	0.490
710.0	0.482
710.5	0.474
711.0	0.467
711.5	0.460
712.0	0.452
712.5	0.445
713.0	0.438
713.5	0.431
714.0	0.423
714.5	0.416
715.0	0.408
715.5	0.401
716.0	0.394
716.5	0.387
717.0	0.381
717.5	0.374
718.0	0.368
718.5	0.362
719.0	0.356
719.5	0.351
720.0	0.346
720.5	0.340
721.0	0.336
721.5	0.331
722.0	0.326
722.5	0.322
723.0	0.318
723.5	0.313
724.0	0.309
724.5	0.305
725.0	0.301
725.5	0.298
726.0	0.294
726.5	0.291
727.0	0.287
727.5	0.284
728.0	0.281
728.5	0.278
729.0	0.275
729.5	0.272
730.0	0.270
730.5	0.267
731.0	0.265
731.5	0.263
732.0	0.261
732.5	0.259
733.0	0.258
733.5	0.256
734.0	0.255
734.5	0.253
735.0	0.252
735.5	0.250
736.0	0.249
736.5	0.247
737.0	0.246
737.5	0.245
738.0	0.244
738.5	0.243
739.0	0.242
739.5	0.241
740.0	0.240
740.5	0.239
741.0	0.238
741.5	0.238
742.0	0.237
742.5	0.237
743.0	0.236
743.5	0.235
744.0	0.235
744.5	0.234
745.0	0.233
745.5	0.233
746.0	0.233
746.5	0.232
747.0	0.232
747.5	0.231
748.0	0.230
748.5	0.230
749.0	0.229
749.5	0.228
750.0	0.227
750.5	0.227
751.0	0.225
751.5	0.225
752.0	0.223
752.5	0.222
753.0	0.221
753.5	0.219
754.0	0.218
754.5	0.217
755.0	0.215
755.5	0.214
756.0	0.213
756.5	0.211
757.0	0.210
757.5	0.208
758.0	0.207
758.5	0.206
759.0	0.204
759.5	0.202
760.0	0.201
760.5	0.199
761.0	0.197
761.5	0.195
762.0	0.193
762.5	0.191
763.0	0.189
763.5	0.187
764.0	0.185
764.5	0.183
765.0	0.181
765.5	0.179
766.0	0.177
766.5	0.175
767.0	0.173
767.5	0.172
768.0	0.170
768.5	0.169
769.0	0.166
769.5	0.164
770.0	0.162
770.5	0.161
771.0	0.159
771.5	0.157
772.0	0.155
772.5	0.153
773.0	0.151
773.5	0.148
774.0	0.147
774.5	0.145
775.0	0.143
775.5	0.141
776.0	0.139
776.5	0.137
777.0	0.135
777.5	0.134
778.0	0.132
778.5	0.130
779.0	0.128
779.5	0.126
780.0	0.124
780.5	0.123
781.0	0.121
781.5	0.119
782.0	0.117
782.5	0.115
783.0	0.113
783.5	0.112
784.0	0.110
784.5	0.109
785.0	0.108
785.5	0.106
786.0	0.105
786.5	0.104
787.0	0.103
787.5	0.102
788.0	0.100
788.5	0.099
789.0	0.097
789.5	0.096
790.0	0.095
790.5	0.093
791.0	0.092
791.5	0.091
792.0	0.090
792.5	0.088
793.0	0.087
793.5	0.086
794.0	0.085
794.5	0.083
795.0	0.082
795.5	0.081
796.0	0.081
796.5	0.079
797.0	0.078
797.5	0.077
798.0	0.076
798.5	0.075
799.0	0.074
799.5	0.073
800.0	0.072
800.5	0.071
801.0	0.070
801.5	0.069
802.0	0.068
802.5	0.067
803.0	0.066
803.5	0.065
804.0	0.064
804.5	0.063
805.0	0.062
805.5	0.061
806.0	0.061
806.5	0.060
807.0	0.059
807.5	0.058
808.0	0.057
808.5	0.057
809.0	0.056
809.5	0.055
810.0	0.055
810.5	0.054
811.0	0.053
811.5	0.053
812.0	0.052
812.5	0.051
813.0	0.051
813.5	0.050
814.0	0.049
814.5	0.049
815.0	0.048
815.5	0.048
816.0	0.048
816.5	0.047
817.0	0.046
817.5	0.046
818.0	0.045
818.5	0.045
819.0	0.044
819.5	0.044
820.0	0.044
820.5	0.043
821.0	0.043
821.5	0.042
822.0	0.042
822.5	0.041
823.0	0.041
823.5	0.040
824.0	0.040
824.5	0.040
825.0	0.040
825.5	0.039
826.0	0.039
826.5	0.038
827.0	0.038
827.5	0.038
828.0	0.038
828.5	0.037
829.0	0.037
829.5	0.037
830.0	0.037
830.5	0.036
831.0	0.036
831.5	0.036
832.0	0.036
832.5	0.035
833.0	0.035
833.5	0.035
834.0	0.034
834.5	0.034
835.0	0.034
835.5	0.033
836.0	0.033
836.5	0.033
837.0	0.033
837.5	0.032
838.0	0.032
838.5	0.032
839.0	0.032
839.5	0.031
840.0	0.031
840.5	0.031
841.0	0.030
841.5	0.030
842.0	0.030
842.5	0.030
843.0	0.029
843.5	0.029
844.0	0.029
844.5	0.029
845.0	0.028
845.5	0.028
846.0	0.028
846.5	0.028
847.0	0.028
847.5	0.028
848.0	0.028
848.5	0.028
849.0	0.028
849.5	0.027
850.0	0.027
850.5	0.027
851.0	0.027
851.5	0.027
852.0	0.027
852.5	0.026
853.0	0.026
853.5	0.026
854.0	0.025
854.5	0.025
855.0	0.025
855.5	0.025
856.0	0.025
856.5	0.024
857.0	0.024
857.5	0.024
858.0	0.024
858.5	0.023
859.0	0.023
859.5	0.023
860.0	0.023
860.5	0.022
861.0	0.022
861.5	0.022
862.0	0.022
862.5	0.022
863.0	0.022
863.5	0.022
864.0	0.021
864.5	0.022
865.0	0.021
865.5	0.021
866.0	0.021
866.5	0.021
867.0	0.020
867.5	0.020
868.0	0.020
868.5	0.020
869.0	0.019
869.5	0.019
870.0	0.019
870.5	0.018
871.0	0.018
871.5	0.018
872.0	0.018
872.5	0.017
873.0	0.017
873.5	0.017
874.0	0.017
874.5	0.017
875.0	0.017
875.5	0.017
876.0	0.017
876.5	0.016
877.0	0.016
877.5	0.016
878.0	0.016
878.5	0.016
879.0	0.016
879.5	0.016
880.0	0.015
880.5	0.015
881.0	0.015
881.5	0.015
882.0	0.014
882.5	0.014
883.0	0.014
883.5	0.014
884.0	0.014
884.5	0.013
885.0	0.013
885.5	0.013
886.0	0.013
886.5	0.013
887.0	0.013
887.5	0.013
888.0	0.013
888.5	0.013
889.0	0.012
889.5	0.012
890.0	0.012
890.5	0.012
891.0	0.012
891.5	0.012
892.0	0.012
892.5	0.012
893.0	0.012
893.5	0.012
894.0	0.011
894.5	0.011
895.0	0.011
895.5	0.011
896.0	0.011
896.5	0.010
897.0	0.010
897.5	0.010
898.0	0.010
898.5	0.010
899.0	0.010
899.5	0.010
900.0	0.010
900.5	0.010
901.0	0.009
901.5	0.009
902.0	0.009
902.5	0.009
903.0	0.009
903.5	0.009
904.0	0.009
904.5	0.009
905.0	0.009
905.5	0.009
906.0	0.008
906.5	0.008
907.0	0.008
907.5	0.008
908.0	0.008
908.5	0.008
909.0	0.008
909.5	0.008
910.0	0.008
910.5	0.007
911.0	0.007
911.5	0.007
912.0	0.007
912.5	0.007
913.0	0.007
913.5	0.007
914.0	0.007
914.5	0.007
915.0	0.007
915.5	0.007
916.0	0.007
916.5	0.007
917.0	0.007
917.5	0.007
918.0	0.007
918.5	0.007
919.0	0.007
919.5	0.006
920.0	0.006
920.5	0.006
921.0	0.006
921.5	0.006
922.0	0.006
922.5	0.006
923.0	0.006
923.5	0.006
924.0	0.006
924.5	0.006
925.0	0.006
925.5	0.006
926.0	0.005
926.5	0.005
927.0	0.005
927.5	0.005
928.0	0.005
928.5	0.005
929.0	0.005
929.5	0.005
930.0	0.005
930.5	0.005
931.0	0.005
931.5	0.005
932.0	0.005
932.5	0.005
933.0	0.005
933.5	0.005
934.0	0.005
934.5	0.004
935.0	0.004
935.5	0.004
936.0	0.004
936.5	0.004
937.0	0.004
937.5	0.004
938.0	0.004
938.5	0.004
939.0	0.004
939.5	0.004
940.0	0.004
940.5	0.004
941.0	0.004
941.5	0.004
942.0	0.004
942.5	0.004
943.0	0.004
943.5	0.004
944.0	0.004
944.5	0.003
945.0	0.003
945.5	0.003
946.0	0.003
946.5	0.003
947.0	0.003
947.5	0.003
948.0	0.003
948.5	0.003
949.0	0.003
949.5	0.003
950.0	0.003
950.5	0.003
951.0	0.003
951.5	0.003
952.0	0.003
952.5	0.003
953.0	0.003
953.5	0.003
954.0	0.003
954.5	0.003
955.0	0.003
955.5	0.003
956.0	0.003
956.5	0.003
957.0	0.003
957.5	0.003
958.0	0.003
958.5	0.003
959.0	0.002
959.5	0.002
960.0	0.002
960.5	0.002
961.0	0.002
961.5	0.002
962.0	0.002
962.5	0.002
963.0	0.002
963.5	0.002
964.0	0.002
964.5	0.002
965.0	0.002
965.5	0.002
966.0	0.002
966.5	0.002
967.0	0.002
967.5	0.002
968.0	0.002
968.5	0.002
969.0	0.002
969.5	0.002
970.0	0.002
970.5	0.002
971.0	0.002
971.5	0.002
972.0	0.002
972.5	0.002
973.0	0.002
973.5	0.002
974.0	0.002
974.5	0.002
975.0	0.002
975.5	0.002
976.0	0.002
976.5	0.002
977.0	0.002
977.5	0.002
978.0	0.002
978.5	0.002
979.0	0.002
979.5	0.002
980.0	0.002
980.5	0.002
981.0	0.002
981.5	0.002
982.0	0.002
982.5	0.002
983.0	0.002
983.5	0.002
984.0	0.002
984.5	0.002
985.0	0.002
985.5	0.002
986.0	0.002
986.5	0.002
987.0	0.002
987.5	0.002
988.0	0.002
988.5	0.002
989.0	0.002
989.5	0.002
990.0	0.002
990.5	0.002
991.0	0.002
991.5	0.002
992.0	0.002
992.5	0.002
993.0	0.002
993.5	0.002
994.0	0.002
994.5	0.002
995.0	0.002
995.5	0.002
996.0	0.002
996.5	0.002
997.0	0.002
997.5	0.002
998.0	0.002
998.5	0.002
999.0	0.002
999.5	0.002
1000.0	0.002
