wavelength	fluorescence
nm	a.u.
590.0	0.000
590.5	0.000
591.0	0.000
591.5	0.000
592.0	0.000
592.5	0.000
593.0	0.000
593.5	0.000
594.0	0.000
594.5	0.000
595.0	0.000
595.5	0.000
596.0	0.000
596.5	0.000
597.0	0.000
597.5	0.000
598.0	0.000
598.5	0.000
599.0	0.000
599.5	0.000
600.0	0.001
600.5	0.001
601.0	0.001
601.5	0.001
602.0	0.001
602.5	0.001
603.0	0.001
603.5	0.001
604.0	0.001
604.5	0.001
605.0	0.001
605.5	0.001
606.0	0.001
606.5	0.001
607.0	0.001
607.5	0.001
608.0	0.001
608.5	0.002
609.0	0.002
609.5	0.002
610.0	0.002
610.5	0.002
611.0	0.002
611.5	0.002
612.0	0.002
612.5	0.003
613.0	0.003
613.5	0.003
614.0	0.003
614.5	0.004
615.0	0.004
615.5	0.004
616.0	0.004
616.5	0.005
617.0	0.005
617.5	0.006
618.0	0.006
618.5	0.006
619.0	0.007
619.5	0.008
620.0	0.008
620.5	0.009
621.0	0.010
621.5	0.011
622.0	0.011
622.5	0.012
623.0	0.014
623.5	0.015
624.0	0.016
624.5	0.017
625.0	0.019
625.5	0.021
626.0	0.022
626.5	0.024
627.0	0.026
627.5	0.029
628.0	0.031
628.5	0.034
629.0	0.037
629.5	0.040
630.0	0.043
630.5	0.047
631.0	0.051
631.5	0.055
632.0	0.060
632.5	0.065
633.0	0.071
633.5	0.077
634.0	0.083
634.5	0.090
635.0	0.098
635.5	0.105
636.0	0.114
636.5	0.123
637.0	0.133
637.5	0.143
638.0	0.154
638.5	0.166
639.0	0.179
639.5	0.192
640.0	0.205
640.5	0.220
641.0	0.235
641.5	0.251
642.0	0.268
642.5	0.286
643.0	0.305
643.5	0.325
644.0	0.345
644.5	0.367
645.0	0.389
645.5	0.412
646.0	0.435
646.5	0.459
647.0	0.483
647.5	0.507
648.0	0.532
648.5	0.556
649.0	0.580
649.5	0.604
650.0	0.627
650.5	0.650
651.0	0.672
651.5	0.695
652.0	0.717
652.5	0.738
653.0	0.759
653.5	0.779
654.0	0.799
654.5	0.818
655.0	0.836
655.5	0.854
656.0	0.871
656.5	0.887
657.0	0.903
657.5	0.917
658.0	0.930
658.5	0.941
659.0	0.952
659.5	0.962
660.0	0.970
660.5	0.977
661.0	0.984
661.5	0.989
662.0	0.993
662.5	0.997
663.0	0.999
663.5	1.000
664.0	1.000
664.5	0.999
665.0	0.998
665.5	0.996
666.0	0.993
666.5	0.989
667.0	0.984
667.5	0.978
668.0	0.972
668.5	0.965
669.0	0.957
669.5	0.948
670.0	0.939
670.5	0.930
671.0	0.920
671.5	0.910
672.0	0.899
672.5	0.888
673.0	0.877
673.5	0.865
674.0	0.853
674.5	0.841
675.0	0.829
675.5	0.816
676.0	0.803
676.5	0.791
677.0	0.779
677.5	0.766
678.0	0.753
678.5	0.741
679.0	0.728
679.5	0.715
680.0	0.702
680.5	0.690
681.0	0.677
681.5	0.664
682.0	0.651
682.5	0.639
683.0	0.626
683.5	0.614
684.0	0.601
684.5	0.589
685.0	0.578
685.5	0.566
686.0	0.554
686.5	0.543
687.0	0.531
687.5	0.520
688.0	0.509
688.5	0.499
689.0	0.488
689.5	0.477
690.0	0.467
690.5	0.456
691.0	0.447
691.5	0.437
692.0	0.427
692.5	0.418
693.0	0.409
693.5	0.400
694.0	0.392
694.5	0.384
695.0	0.376
695.5	0.368
696.0	0.361
696.5	0.354
697.0	0.347
697.5	0.340
698.0	0.334
698.5	0.327
699.0	0.321
699.5	0.315
700.0	0.309
700.5	0.304
701.0	0.298
701.5	0.293
702.0	0.288
702.5	0.283
703.0	0.279
703.5	0.275
704.0	0.271
704.5	0.266
705.0	0.262
705.5	0.258
706.0	0.254
706.5	0.251
707.0	0.247
707.5	0.244
708.0	0.241
708.5	0.238
709.0	0.235
709.5	0.233
710.0	0.230
710.5	0.228
711.0	0.226
711.5	0.223
712.0	0.222
712.5	0.220
713.0	0.218
713.5	0.216
714.0	0.214
714.5	0.212
715.0	0.211
715.5	0.209
716.0	0.208
716.5	0.206
717.0	0.205
717.5	0.204
718.0	0.203
718.5	0.202
719.0	0.201
719.5	0.200
720.0	0.198
720.5	0.198
721.0	0.197
721.5	0.196
722.0	0.195
722.5	0.194
723.0	0.193
723.5	0.192
724.0	0.191
724.5	0.190
725.0	0.189
725.5	0.188
726.0	0.187
726.5	0.186
727.0	0.184
727.5	0.184
728.0	0.183
728.5	0.181
729.0	0.180
729.5	0.179
730.0	0.178
730.5	0.176
731.0	0.175
731.5	0.174
732.0	0.172
732.5	0.171
733.0	0.170
733.5	0.168
734.0	0.167
734.5	0.165
735.0	0.164
735.5	0.162
736.0	0.161
736.5	0.159
737.0	0.157
737.5	0.156
738.0	0.154
738.5	0.152
739.0	0.150
739.5	0.148
740.0	0.146
740.5	0.145
741.0	0.143
741.5	0.141
742.0	0.140
742.5	0.138
743.0	0.136
743.5	0.134
744.0	0.133
744.5	0.131
745.0	0.129
745.5	0.128
746.0	0.126
746.5	0.124
747.0	0.122
747.5	0.120
748.0	0.118
748.5	0.117
749.0	0.115
749.5	0.113
750.0	0.111
750.5	0.110
751.0	0.108
751.5	0.106
752.0	0.104
752.5	0.103
753.0	0.101
753.5	0.099
754.0	0.098
754.5	0.096
755.0	0.095
755.5	0.093
756.0	0.092
756.5	0.090
757.0	0.089
757.5	0.087
758.0	0.086
758.5	0.084
759.0	0.083
759.5	0.081
760.0	0.079
760.5	0.078
761.0	0.076
761.5	0.075
762.0	0.074
762.5	0.073
763.0	0.071
763.5	0.070
764.0	0.069
764.5	0.068
765.0	0.066
765.5	0.065
766.0	0.064
766.5	0.063
767.0	0.062
767.5	0.061
768.0	0.060
768.5	0.059
769.0	0.058
769.5	0.057
770.0	0.056
770.5	0.055
771.0	0.054
771.5	0.053
772.0	0.052
772.5	0.051
773.0	0.050
773.5	0.049
774.0	0.048
774.5	0.048
775.0	0.047
775.5	0.046
776.0	0.045
776.5	0.045
777.0	0.044
777.5	0.044
778.0	0.043
778.5	0.042
779.0	0.042
779.5	0.041
780.0	0.040
780.5	0.040
781.0	0.039
781.5	0.038
782.0	0.038
782.5	0.037
783.0	0.036
783.5	0.036
784.0	0.036
784.5	0.035
785.0	0.035
785.5	0.034
786.0	0.034
786.5	0.033
787.0	0.033
787.5	0.033
788.0	0.032
788.5	0.032
789.0	0.031
789.5	0.031
790.0	0.030
790.5	0.030
791.0	0.030
791.5	0.029
792.0	0.029
792.5	0.029
793.0	0.028
793.5	0.028
794.0	0.028
794.5	0.027
795.0	0.027
795.5	0.026
796.0	0.026
796.5	0.026
797.0	0.026
797.5	0.025
798.0	0.025
798.5	0.025
799.0	0.025
799.5	0.024
800.0	0.024
800.5	0.024
801.0	0.024
801.5	0.024
802.0	0.023
802.5	0.023
803.0	0.023
803.5	0.023
804.0	0.022
804.5	0.022
805.0	0.022
805.5	0.021
806.0	0.021
806.5	0.021
807.0	0.021
807.5	0.021
808.0	0.020
808.5	0.020
809.0	0.020
809.5	0.020
810.0	0.019
810.5	0.019
811.0	0.019
811.5	0.019
812.0	0.019
812.5	0.019
813.0	0.019
813.5	0.019
814.0	0.019
814.5	0.018
815.0	0.018
815.5	0.018
816.0	0.018
816.5	0.018
817.0	0.018
817.5	0.017
818.0	0.017
818.5	0.017
819.0	0.017
819.5	0.016
820.0	0.016
820.5	0.016
821.0	0.016
821.5	0.016
822.0	0.016
822.5	0.016
823.0	0.016
823.5	0.015
824.0	0.015
824.5	0.015
825.0	0.015
825.5	0.015
826.0	0.014
826.5	0.014
827.0	0.014
827.5	0.014
828.0	0.014
828.5	0.013
829.0	0.013
829.5	0.013
830.0	0.013
830.5	0.013
831.0	0.013
831.5	0.013
832.0	0.013
832.5	0.013
833.0	0.013
833.5	0.013
834.0	0.012
834.5	0.012
835.0	0.012
835.5	0.012
836.0	0.012
836.5	0.011
837.0	0.011
837.5	0.011
838.0	0.011
838.5	0.011
839.0	0.011
839.5	0.011
840.0	0.011
840.5	0.010
841.0	0.010
841.5	0.010
842.0	0.010
842.5	0.010
843.0	0.010
843.5	0.010
844.0	0.009
844.5	0.009
845.0	0.009
845.5	0.009
846.0	0.009
846.5	0.009
847.0	0.009
847.5	0.008
848.0	0.008
848.5	0.008
849.0	0.008
849.5	0.008
850.0	0.008
850.5	0.008
851.0	0.008
851.5	0.008
852.0	0.008
852.5	0.008
853.0	0.008
853.5	0.008
854.0	0.008
854.5	0.007
855.0	0.007
855.5	0.007
856.0	0.007
856.5	0.007
857.0	0.007
857.5	0.007
858.0	0.006
858.5	0.006
859.0	0.006
859.5	0.006
860.0	0.006
860.5	0.006
861.0	0.006
861.5	0.006
862.0	0.006
862.5	0.006
863.0	0.006
863.5	0.006
864.0	0.006
864.5	0.006
865.0	0.005
865.5	0.005
866.0	0.005
866.5	0.005
867.0	0.005
867.5	0.005
868.0	0.005
868.5	0.005
869.0	0.005
869.5	0.005
870.0	0.005
870.5	0.005
871.0	0.005
871.5	0.004
872.0	0.004
872.5	0.004
873.0	0.004
873.5	0.004
874.0	0.004
874.5	0.004
875.0	0.004
875.5	0.004
876.0	0.004
876.5	0.004
877.0	0.004
877.5	0.004
878.0	0.004
878.5	0.004
879.0	0.004
879.5	0.004
880.0	0.004
880.5	0.004
881.0	0.004
881.5	0.004
882.0	0.003
882.5	0.003
883.0	0.003
883.5	0.003
884.0	0.003
884.5	0.003
885.0	0.003
885.5	0.003
886.0	0.003
886.5	0.003
887.0	0.003
887.5	0.003
888.0	0.003
888.5	0.003
889.0	0.003
889.5	0.003
890.0	0.003
890.5	0.003
891.0	0.003
891.5	0.003
892.0	0.003
892.5	0.003
893.0	0.003
893.5	0.003
894.0	0.003
894.5	0.002
895.0	0.002
895.5	0.002
896.0	0.002
896.5	0.002
897.0	0.002
897.5	0.002
898.0	0.002
898.5	0.002
899.0	0.002
899.5	0.002
900.0	0.002
900.5	0.002
901.0	0.002
901.5	0.002
902.0	0.002
902.5	0.002
903.0	0.002
903.5	0.002
904.0	0.002
904.5	0.002
905.0	0.002
905.5	0.002
906.0	0.002
906.5	0.002
907.0	0.002
907.5	0.002
908.0	0.002
908.5	0.002
909.0	0.002
909.5	0.002
910.0	0.002
910.5	0.002
911.0	0.002
911.5	0.002
912.0	0.002
912.5	0.002
913.0	0.002
913.5	0.002
914.0	0.002
914.5	0.002
915.0	0.002
915.5	0.002
916.0	0.002
916.5	0.002
917.0	0.002
917.5	0.002
918.0	0.002
918.5	0.002
919.0	0.002
919.5	0.002
920.0	0.002
920.5	0.002
921.0	0.001
921.5	0.001
922.0	0.001
922.5	0.001
923.0	0.001
923.5	0.001
924.0	0.001
924.5	0.001
925.0	0.001
925.5	0.001
926.0	0.001
926.5	0.001
927.0	0.001
927.5	0.001
928.0	0.001
928.5	0.001
929.0	0.001
929.5	0.001
930.0	0.001
930.5	0.001
931.0	0.001
931.5	0.001
932.0	0.001
932.5	0.001
933.0	0.001
933.5	0.001
934.0	0.001
934.5	0.001
935.0	0.001
935.5	0.001
936.0	0.001
936.5	0.001
937.0	0.001
937.5	0.001
938.0	0.001
938.5	0.001
939.0	0.001
939.5	0.001
940.0	0.001
940.5	0.001
941.0	0.001
941.5	0.001
942.0	0.001
942.5	0.001
943.0	0.001
943.5	0.001
944.0	0.001
944.5	0.001
945.0	0.001
945.5	0.001
946.0	0.001
946.5	0.001
947.0	0.001
947.5	0.001
948.0	0.001
948.5	0.001
949.0	0.001
949.5	0.001
950.0	0.001
950.5	0.001
951.0	0.001
951.5	0.001
952.0	0.001
952.5	0.001
953.0	0.001
953.5	0.001
954.0	0.001
954.5	0.001
955.0	0.001
955.5	0.001
956.0	0.001
956.5	0.001
957.0	0.001
957.5	0.001
958.0	0.001
958.5	0.001
959.0	0.001
959.5	0.001
960.0	0.001
960.5	0.001
961.0	0.001
961.5	0.001
962.0	0.001
962.5	0.001
963.0	0.001
963.5	0.001
964.0	0.001
964.5	0.001
965.0	0.001
965.5	0.001
966.0	0.001
966.5	0.001
967.0	0.001
967.5	0.001
968.0	0.000
968.5	0.000
969.0	0.001
969.5	0.000
970.0	0.000
970.5	0.000
971.0	0.001
971.5	0.001
972.0	0.000
972.5	0.000
973.0	0.000
973.5	0.000
974.0	0.000
974.5	0.000
975.0	0.000
